Generic               	CD0005960000
Experiment            	MAGI-1 PDZ1
Description           	Protein name : MAGI-1 PDZ1. Deposited into the PCDDB by Yves Nomine
Concentration (mg/ml) 	0.55
Temperature           	30
Machine               	Jasco
Pathlength (cm)       	0.01
Accumulations         	6
High Wavelength       	270
Low Wavelength        	190
Interval (nm)         	0.5
Dwell time (s)        	1.0
Date                  	2014-10-16T00:00:00
M.R.W. (Da)           	108.3
Smoothing window      	7
PDB                   	2KPK
Swissprot             	Q96QZ7
Code                  	No citation information currently associated with this entry.
270.0	       -82.8782	        210.436	       -82.8782	    0.00000E+00	    0.00000E+00	    0.00000E+00	  
269.5	       -75.9772	        210.694	       -75.9772	    0.00000E+00	    0.00000E+00	    0.00000E+00	  
269.0	       -67.1993	        210.956	       -67.1993	    0.00000E+00	    0.00000E+00	    0.00000E+00	  
268.5	       -71.4189	        211.225	       -71.4189	    0.00000E+00	    0.00000E+00	    0.00000E+00	  
268.0	       -84.6532	        211.503	       -84.6532	    0.00000E+00	    0.00000E+00	    0.00000E+00	  
267.5	       -92.1576	        211.788	       -92.1576	    0.00000E+00	    0.00000E+00	    0.00000E+00	  
267.0	       -76.0548	        212.078	       -76.0548	    0.00000E+00	    0.00000E+00	    0.00000E+00	  
266.5	       -40.5629	        212.367	       -40.5629	    0.00000E+00	    0.00000E+00	    0.00000E+00	  
266.0	       -18.8681	         212.66	       -18.8681	    0.00000E+00	    0.00000E+00	    0.00000E+00	  
265.5	       -18.9135	        212.956	       -18.9135	    0.00000E+00	    0.00000E+00	    0.00000E+00	  
265.0	       -42.2195	        213.263	       -42.2195	    0.00000E+00	    0.00000E+00	    0.00000E+00	  
264.5	       -62.3772	        213.568	       -62.3772	    0.00000E+00	    0.00000E+00	    0.00000E+00	  
264.0	       -60.6598	        213.857	       -60.6598	    0.00000E+00	    0.00000E+00	    0.00000E+00	  
263.5	       -42.1726	         214.14	       -42.1726	    0.00000E+00	    0.00000E+00	    0.00000E+00	  
263.0	       -30.0785	        214.422	       -30.0785	    0.00000E+00	    0.00000E+00	    0.00000E+00	  
262.5	       -16.8162	         214.73	       -16.8162	    0.00000E+00	    0.00000E+00	    0.00000E+00	  
262.0	       -25.1045	        215.044	       -25.1045	    0.00000E+00	    0.00000E+00	    0.00000E+00	  
261.5	       -36.3576	        215.358	       -36.3576	    0.00000E+00	    0.00000E+00	    0.00000E+00	  
261.0	       -44.8269	        215.657	       -44.8269	    0.00000E+00	    0.00000E+00	    0.00000E+00	  
260.5	       -43.4165	        215.952	       -43.4165	    0.00000E+00	    0.00000E+00	    0.00000E+00	  
260.0	       -37.1806	        216.261	       -37.1806	    0.00000E+00	    0.00000E+00	    0.00000E+00	  
259.5	       -17.4731	        216.586	       -17.4731	    0.00000E+00	    0.00000E+00	    0.00000E+00	  
259.0	       -14.2577	        216.916	       -14.2577	    0.00000E+00	    0.00000E+00	    0.00000E+00	  
258.5	       -19.1086	        217.243	       -19.1086	    0.00000E+00	    0.00000E+00	    0.00000E+00	  
258.0	       -29.6601	        217.545	       -29.6601	    0.00000E+00	    0.00000E+00	    0.00000E+00	  
257.5	       -38.4764	         217.82	       -38.4764	    0.00000E+00	    0.00000E+00	    0.00000E+00	  
257.0	        -33.913	         218.08	        -33.913	    0.00000E+00	    0.00000E+00	    0.00000E+00	  
256.5	       -13.4331	        218.338	       -13.4331	    0.00000E+00	    0.00000E+00	    0.00000E+00	  
256.0	       -6.29075	        218.605	       -6.29075	    0.00000E+00	    0.00000E+00	    0.00000E+00	  
255.5	        1.50566	        218.874	        1.50566	    0.00000E+00	    0.00000E+00	    0.00000E+00	  
255.0	       -2.66378	        219.131	       -2.66378	    0.00000E+00	    0.00000E+00	    0.00000E+00	  
254.5	       -13.4099	        219.377	       -13.4099	    0.00000E+00	    0.00000E+00	    0.00000E+00	  
254.0	       -5.05301	        219.603	       -5.05301	    0.00000E+00	    0.00000E+00	    0.00000E+00	  
253.5	        3.09096	        219.819	        3.09096	    0.00000E+00	    0.00000E+00	    0.00000E+00	  
253.0	        7.76183	        220.025	        7.76183	    0.00000E+00	    0.00000E+00	    0.00000E+00	  
252.5	       -9.84331	        220.241	       -9.84331	    0.00000E+00	    0.00000E+00	    0.00000E+00	  
252.0	       -66.2344	        220.448	       -66.2344	    0.00000E+00	    0.00000E+00	    0.00000E+00	  
251.5	       -136.347	        220.645	       -136.347	    0.00000E+00	    0.00000E+00	    0.00000E+00	  
251.0	       -192.415	        220.831	       -192.415	    0.00000E+00	    0.00000E+00	    0.00000E+00	  
250.5	       -203.874	        221.012	       -203.874	    0.00000E+00	    0.00000E+00	    0.00000E+00	  
250.0	       -172.737	        221.192	       -172.737	    0.00000E+00	    0.00000E+00	    0.00000E+00	  
249.5	       -139.008	        221.373	       -139.008	    0.00000E+00	    0.00000E+00	    0.00000E+00	  
249.0	       -129.873	        221.541	       -129.873	    0.00000E+00	    0.00000E+00	    0.00000E+00	  
248.5	        -151.13	        221.693	        -151.13	    0.00000E+00	    0.00000E+00	    0.00000E+00	  
248.0	       -187.241	        221.824	       -187.241	    0.00000E+00	    0.00000E+00	    0.00000E+00	  
247.5	       -199.474	        221.955	       -199.474	    0.00000E+00	    0.00000E+00	    0.00000E+00	  
247.0	       -199.731	        222.102	       -199.731	    0.00000E+00	    0.00000E+00	    0.00000E+00	  
246.5	       -189.119	        222.269	       -189.119	    0.00000E+00	    0.00000E+00	    0.00000E+00	  
246.0	       -195.685	        222.449	       -195.685	    0.00000E+00	    0.00000E+00	    0.00000E+00	  
245.5	       -224.523	        222.625	       -224.523	    0.00000E+00	    0.00000E+00	    0.00000E+00	  
245.0	       -262.999	        222.792	       -262.999	    0.00000E+00	    0.00000E+00	    0.00000E+00	  
244.5	        -290.44	         222.95	        -290.44	    0.00000E+00	    0.00000E+00	    0.00000E+00	  
244.0	       -296.384	        223.108	       -296.384	    0.00000E+00	    0.00000E+00	    0.00000E+00	  
243.5	       -278.901	        223.273	       -278.901	    0.00000E+00	    0.00000E+00	    0.00000E+00	  
243.0	       -256.695	        223.445	       -256.695	    0.00000E+00	    0.00000E+00	    0.00000E+00	  
242.5	        -266.29	        223.633	        -266.29	    0.00000E+00	    0.00000E+00	    0.00000E+00	  
242.0	       -305.082	        223.821	       -305.082	    0.00000E+00	    0.00000E+00	    0.00000E+00	  
241.5	       -361.691	        224.016	       -361.691	    0.00000E+00	    0.00000E+00	    0.00000E+00	  
241.0	       -415.951	        224.221	       -415.951	    0.00000E+00	    0.00000E+00	    0.00000E+00	  
240.5	       -460.096	        224.446	       -460.096	    0.00000E+00	    0.00000E+00	    0.00000E+00	  
240.0	       -499.563	        224.693	       -499.563	    0.00000E+00	    0.00000E+00	    0.00000E+00	  
239.5	       -550.809	         224.96	       -550.809	    0.00000E+00	    0.00000E+00	    0.00000E+00	  
239.0	       -614.241	        225.247	       -614.241	    0.00000E+00	    0.00000E+00	    0.00000E+00	  
238.5	       -677.239	        225.547	       -677.239	    0.00000E+00	    0.00000E+00	    0.00000E+00	  
238.0	       -721.815	         225.86	       -721.815	    0.00000E+00	    0.00000E+00	    0.00000E+00	  
237.5	        -751.51	        226.187	        -751.51	    0.00000E+00	    0.00000E+00	    0.00000E+00	  
237.0	       -785.009	        226.528	       -785.009	    0.00000E+00	    0.00000E+00	    0.00000E+00	  
236.5	       -842.927	        226.894	       -842.927	    0.00000E+00	    0.00000E+00	    0.00000E+00	  
236.0	       -928.546	        227.269	       -928.546	    0.00000E+00	    0.00000E+00	    0.00000E+00	  
235.5	       -1026.82	        227.649	       -1026.82	    0.00000E+00	    0.00000E+00	    0.00000E+00	  
235.0	       -1111.67	        228.046	       -1111.67	    0.00000E+00	    0.00000E+00	    0.00000E+00	  
234.5	       -1172.46	        228.464	       -1172.46	    0.00000E+00	    0.00000E+00	    0.00000E+00	  
234.0	       -1224.98	        228.912	       -1224.98	    0.00000E+00	    0.00000E+00	    0.00000E+00	  
233.5	       -1286.86	        229.385	       -1286.86	    0.00000E+00	    0.00000E+00	    0.00000E+00	  
233.0	          -1358	        229.872	          -1358	    0.00000E+00	    0.00000E+00	    0.00000E+00	  
232.5	       -1452.56	        230.365	       -1452.56	    0.00000E+00	    0.00000E+00	    0.00000E+00	  
232.0	       -1555.25	        230.862	       -1555.25	    0.00000E+00	    0.00000E+00	    0.00000E+00	  
231.5	        -1658.4	        231.366	        -1658.4	    0.00000E+00	    0.00000E+00	    0.00000E+00	  
231.0	       -1767.59	         231.87	       -1767.59	    0.00000E+00	    0.00000E+00	    0.00000E+00	  
230.5	       -1879.49	        232.378	       -1879.49	    0.00000E+00	    0.00000E+00	    0.00000E+00	  
230.0	       -1993.25	        232.899	       -1993.25	    0.00000E+00	    0.00000E+00	    0.00000E+00	  
229.5	       -2116.51	        233.466	       -2116.51	    0.00000E+00	    0.00000E+00	    0.00000E+00	  
229.0	       -2226.21	        234.102	       -2226.21	    0.00000E+00	    0.00000E+00	    0.00000E+00	  
228.5	       -2334.01	        234.796	       -2334.01	    0.00000E+00	    0.00000E+00	    0.00000E+00	  
228.0	       -2432.41	        235.521	       -2432.41	    0.00000E+00	    0.00000E+00	    0.00000E+00	  
227.5	       -2528.81	        236.251	       -2528.81	    0.00000E+00	    0.00000E+00	    0.00000E+00	  
227.0	       -2620.79	        236.986	       -2620.79	    0.00000E+00	    0.00000E+00	    0.00000E+00	  
226.5	          -2713	        237.733	          -2713	    0.00000E+00	    0.00000E+00	    0.00000E+00	  
226.0	       -2785.19	        238.497	       -2785.19	    0.00000E+00	    0.00000E+00	    0.00000E+00	  
225.5	       -2859.41	        239.293	       -2859.41	    0.00000E+00	    0.00000E+00	    0.00000E+00	  
225.0	       -2920.11	        240.121	       -2920.11	    0.00000E+00	    0.00000E+00	    0.00000E+00	  
224.5	       -2972.57	        240.985	       -2972.57	    0.00000E+00	    0.00000E+00	    0.00000E+00	  
224.0	       -3024.92	        241.876	       -3024.92	    0.00000E+00	    0.00000E+00	    0.00000E+00	  
223.5	       -3083.08	        242.796	       -3083.08	    0.00000E+00	    0.00000E+00	    0.00000E+00	  
223.0	       -3148.66	        243.742	       -3148.66	    0.00000E+00	    0.00000E+00	    0.00000E+00	  
222.5	       -3218.47	        244.721	       -3218.47	    0.00000E+00	    0.00000E+00	    0.00000E+00	  
222.0	       -3280.29	        245.731	       -3280.29	    0.00000E+00	    0.00000E+00	    0.00000E+00	  
221.5	       -3332.98	         246.78	       -3332.98	    0.00000E+00	    0.00000E+00	    0.00000E+00	  
221.0	       -3408.85	        247.849	       -3408.85	    0.00000E+00	    0.00000E+00	    0.00000E+00	  
220.5	       -3494.58	        248.928	       -3494.58	    0.00000E+00	    0.00000E+00	    0.00000E+00	  
220.0	       -3567.95	        250.023	       -3567.95	    0.00000E+00	    0.00000E+00	    0.00000E+00	  
219.5	       -3589.47	        251.133	       -3589.47	    0.00000E+00	    0.00000E+00	    0.00000E+00	  
219.0	       -3569.79	        252.262	       -3569.79	    0.00000E+00	    0.00000E+00	    0.00000E+00	  
218.5	       -3543.54	        253.398	       -3543.54	    0.00000E+00	    0.00000E+00	    0.00000E+00	  
218.0	       -3578.92	        254.552	       -3578.92	    0.00000E+00	    0.00000E+00	    0.00000E+00	  
217.5	       -3674.54	        255.724	       -3674.54	    0.00000E+00	    0.00000E+00	    0.00000E+00	  
217.0	       -3800.22	        256.924	       -3800.22	    0.00000E+00	    0.00000E+00	    0.00000E+00	  
216.5	       -3916.99	        258.144	       -3916.99	    0.00000E+00	    0.00000E+00	    0.00000E+00	  
216.0	       -3992.58	        259.375	       -3992.58	    0.00000E+00	    0.00000E+00	    0.00000E+00	  
215.5	       -4036.46	        260.625	       -4036.46	    0.00000E+00	    0.00000E+00	    0.00000E+00	  
215.0	       -4089.37	        261.904	       -4089.37	    0.00000E+00	    0.00000E+00	    0.00000E+00	  
214.5	       -4159.13	        263.214	       -4159.13	    0.00000E+00	    0.00000E+00	    0.00000E+00	  
214.0	       -4255.33	        264.568	       -4255.33	    0.00000E+00	    0.00000E+00	    0.00000E+00	  
213.5	        -4387.6	        265.961	        -4387.6	    0.00000E+00	    0.00000E+00	    0.00000E+00	  
213.0	       -4504.56	        267.404	       -4504.56	    0.00000E+00	    0.00000E+00	    0.00000E+00	  
212.5	       -4628.24	        268.898	       -4628.24	    0.00000E+00	    0.00000E+00	    0.00000E+00	  
212.0	       -4751.58	        270.451	       -4751.58	    0.00000E+00	    0.00000E+00	    0.00000E+00	  
211.5	       -4913.34	        272.052	       -4913.34	    0.00000E+00	    0.00000E+00	    0.00000E+00	  
211.0	       -5119.01	        273.677	       -5119.01	    0.00000E+00	    0.00000E+00	    0.00000E+00	  
210.5	       -5385.47	        275.346	       -5385.47	    0.00000E+00	    0.00000E+00	    0.00000E+00	  
210.0	       -5662.57	        277.064	       -5662.57	    0.00000E+00	    0.00000E+00	    0.00000E+00	  
209.5	       -5961.39	        278.846	       -5961.39	    0.00000E+00	    0.00000E+00	    0.00000E+00	  
209.0	       -6212.07	        280.696	       -6212.07	    0.00000E+00	    0.00000E+00	    0.00000E+00	  
208.5	       -6432.26	        282.616	       -6432.26	    0.00000E+00	    0.00000E+00	    0.00000E+00	  
208.0	       -6642.08	        284.608	       -6642.08	    0.00000E+00	    0.00000E+00	    0.00000E+00	  
207.5	       -6850.85	        286.694	       -6850.85	    0.00000E+00	    0.00000E+00	    0.00000E+00	  
207.0	       -7131.15	        288.869	       -7131.15	    0.00000E+00	    0.00000E+00	    0.00000E+00	  
206.5	       -7442.54	         291.14	       -7442.54	    0.00000E+00	    0.00000E+00	    0.00000E+00	  
206.0	       -7724.79	        293.511	       -7724.79	    0.00000E+00	    0.00000E+00	    0.00000E+00	  
205.5	       -7944.74	        295.986	       -7944.74	    0.00000E+00	    0.00000E+00	    0.00000E+00	  
205.0	       -8062.97	        298.587	       -8062.97	    0.00000E+00	    0.00000E+00	    0.00000E+00	  
204.5	       -8121.67	        301.334	       -8121.67	    0.00000E+00	    0.00000E+00	    0.00000E+00	  
204.0	       -8195.47	        304.224	       -8195.47	    0.00000E+00	    0.00000E+00	    0.00000E+00	  
203.5	       -8263.75	        307.283	       -8263.75	    0.00000E+00	    0.00000E+00	    0.00000E+00	  
203.0	       -8340.59	        310.497	       -8340.59	    0.00000E+00	    0.00000E+00	    0.00000E+00	  
202.5	        -8378.4	        313.916	        -8378.4	    0.00000E+00	    0.00000E+00	    0.00000E+00	  
202.0	       -8349.01	        317.551	       -8349.01	    0.00000E+00	    0.00000E+00	    0.00000E+00	  
201.5	       -8290.28	        321.441	       -8290.28	    0.00000E+00	    0.00000E+00	    0.00000E+00	  
201.0	       -8216.84	        325.616	       -8216.84	    0.00000E+00	    0.00000E+00	    0.00000E+00	  
200.5	       -8161.32	        330.114	       -8161.32	    0.00000E+00	    0.00000E+00	    0.00000E+00	  
200.0	       -8060.79	         334.98	       -8060.79	    0.00000E+00	    0.00000E+00	    0.00000E+00	  
199.5	       -7786.59	         340.24	       -7786.59	    0.00000E+00	    0.00000E+00	    0.00000E+00	  
199.0	       -7345.92	        345.957	       -7345.92	    0.00000E+00	    0.00000E+00	    0.00000E+00	  
198.5	       -6763.64	        352.272	       -6763.64	    0.00000E+00	    0.00000E+00	    0.00000E+00	  
198.0	       -6118.89	        359.274	       -6118.89	    0.00000E+00	    0.00000E+00	    0.00000E+00	  
197.5	       -5408.39	        367.009	       -5408.39	    0.00000E+00	    0.00000E+00	    0.00000E+00	  
197.0	       -4573.96	        375.487	       -4573.96	    0.00000E+00	    0.00000E+00	    0.00000E+00	  
196.5	       -3542.29	        384.848	       -3542.29	    0.00000E+00	    0.00000E+00	    0.00000E+00	  
196.0	       -2397.02	        395.376	       -2397.02	    0.00000E+00	    0.00000E+00	    0.00000E+00	  
195.5	        -1190.7	        407.133	        -1190.7	    0.00000E+00	    0.00000E+00	    0.00000E+00	  
195.0	        17.6529	        420.212	        17.6529	    0.00000E+00	    0.00000E+00	    0.00000E+00	  
194.5	        1253.24	        434.595	        1253.24	    0.00000E+00	    0.00000E+00	    0.00000E+00	  
194.0	        2432.56	        450.976	        2432.56	    0.00000E+00	    0.00000E+00	    0.00000E+00	  
193.5	        3435.06	        470.416	        3435.06	    0.00000E+00	    0.00000E+00	    0.00000E+00	  
193.0	        4028.73	        493.262	        4028.73	    0.00000E+00	    0.00000E+00	    0.00000E+00	  
192.5	        4436.41	        518.962	        4436.41	    0.00000E+00	    0.00000E+00	    0.00000E+00	  
192.0	        4542.61	        546.373	        4542.61	    0.00000E+00	    0.00000E+00	    0.00000E+00	  
191.5	        4527.92	         577.13	        4527.92	    0.00000E+00	    0.00000E+00	    0.00000E+00	  
191.0	        4772.58	        612.112	        4772.58	    0.00000E+00	    0.00000E+00	    0.00000E+00	  
190.5	        4871.71	        649.629	        4871.71	    0.00000E+00	    0.00000E+00	    0.00000E+00	  
190.0	        4072.42	        684.167	        4072.42	    0.00000E+00	    0.00000E+00	    0.00000E+00	  
189.5	        1975.49	        712.119	        1975.49	    0.00000E+00	    0.00000E+00	    0.00000E+00	  
189.0	       -453.517	        735.905	       -453.517	    0.00000E+00	    0.00000E+00	    0.00000E+00	  
188.5	       -2734.78	        754.265	       -2734.78	    0.00000E+00	    0.00000E+00	    0.00000E+00	  
188.0	       -2227.96	        767.085	       -2227.96	    0.00000E+00	    0.00000E+00	    0.00000E+00	  
187.5	       -807.734	         773.23	       -807.734	    0.00000E+00	    0.00000E+00	    0.00000E+00	  
187.0	        949.065	        780.673	        949.065	    0.00000E+00	    0.00000E+00	    0.00000E+00	  
186.5	        1306.04	        788.968	        1306.04	    0.00000E+00	    0.00000E+00	    0.00000E+00	  
186.0	        1019.65	        796.693	        1019.65	    0.00000E+00	    0.00000E+00	    0.00000E+00	  
185.5	      -0.682248	        803.744	      -0.682248	    0.00000E+00	    0.00000E+00	    0.00000E+00	  
185.0	          130.2	        811.831	          130.2	    0.00000E+00	    0.00000E+00	    0.00000E+00	  
